#EXPORTTYPE:DATA SINGLE
#FORMAT:NETZSCH5
#FTYPE:ANSI
#IDENTITY:001931
#DECIMAL:POINT
#SEPARATOR:SEMICOLON
#DATE/TIME:16.12.2016 11:34
#CORR. FILE:001930_bline_Al_250_2_N2_70.ngb-bd3
#TEMPCAL:TCALZERO.TMX
#SENSITIVITY:SENSZERO.EXX
#SAMPLE MASS /mg:8.25
#MATERIAL:ïðåïðåã
#REFERENCE:
#REFERENCE MASS /mg:0
#TYPE OF CRUCIBLE:Pan Al, closed
#SAMPLE CRUCIBLE MASS /mg:0
#REFERENCE CRUCIBLE MASS /mg:0
#M.RANGE /µV:5000
#TAU-R:---
#CORR. CODE:020
#EXO:+1
#RANGE:24°C/2,0(K/min)/270°C
#SEGMENT:S1/2
#SEG. 1:24°C/2,0(K/min)/270°C

##Temp./°C;Time/min;DSC/(uV/mg);Sensit./(uV/mW)
 48.47032; 12.50000;    -0.19300;1.00000
 48.65077; 12.59000;    -0.19346;1.00000
 48.83116; 12.68000;    -0.19429;1.00000
 49.01148; 12.77000;    -0.19328;1.00000
 49.19182; 12.86000;    -0.19319;1.00000
 49.37217; 12.95000;    -0.19374;1.00000
 49.55263; 13.04000;    -0.19374;1.00000
 49.73304; 13.13000;    -0.19300;1.00000
 49.91339; 13.22000;    -0.19300;1.00000
 50.09371; 13.31000;    -0.19300;1.00000
 50.27408; 13.40000;    -0.19374;1.00000
 50.45446; 13.49000;    -0.19383;1.00000
 50.63471; 13.58000;    -0.19291;1.00000
 50.81511; 13.67000;    -0.19392;1.00000
 50.99547; 13.76000;    -0.19281;1.00000
 51.17587; 13.85000;    -0.19337;1.00000
 51.35623; 13.94000;    -0.19235;1.00000
 51.53665; 14.03000;    -0.19328;1.00000
 51.71702; 14.12000;    -0.19355;1.00000
 51.89734; 14.21000;    -0.19291;1.00000
 52.07761; 14.30000;    -0.19309;1.00000
 52.25793; 14.39000;    -0.19198;1.00000
 52.43820; 14.48000;    -0.19374;1.00000
 52.61851; 14.57000;    -0.19198;1.00000
 52.79885; 14.66000;    -0.19263;1.00000
 52.97911; 14.75000;    -0.19346;1.00000
 53.15942; 14.84000;    -0.19281;1.00000
 53.33969; 14.93000;    -0.19226;1.00000
 53.51987; 15.02000;    -0.19318;1.00000
 53.70009; 15.11000;    -0.19374;1.00000
 53.88029; 15.20000;    -0.19152;1.00000
 54.06054; 15.29000;    -0.19365;1.00000
 54.24073; 15.38000;    -0.19207;1.00000
 54.42088; 15.47000;    -0.19309;1.00000
 54.60096; 15.56000;    -0.19281;1.00000
 54.78102; 15.65000;    -0.19244;1.00000
 54.96117; 15.74000;    -0.19263;1.00000
 55.14135; 15.83000;    -0.19291;1.00000
 55.32145; 15.92000;    -0.19216;1.00000
 55.50163; 16.01000;    -0.19226;1.00000
 55.68177; 16.10000;    -0.19309;1.00000
 55.86197; 16.19000;    -0.19309;1.00000
 56.04208; 16.28000;    -0.19272;1.00000
 56.22222; 16.37000;    -0.19198;1.00000
 56.40249; 16.46000;    -0.19235;1.00000
 56.58271; 16.55000;    -0.19216;1.00000
 56.76291; 16.64000;    -0.19300;1.00000
 56.94304; 16.73000;    -0.19318;1.00000
 57.12311; 16.82000;    -0.19327;1.00000
 57.30334; 16.91000;    -0.19300;1.00000
 57.48344; 17.00000;    -0.19226;1.00000
 57.66350; 17.09000;    -0.19309;1.00000
 57.84366; 17.18000;    -0.19327;1.00000
 58.02377; 17.27000;    -0.19235;1.00000
 58.20392; 17.36000;    -0.19365;1.00000
 58.38396; 17.45000;    -0.19198;1.00000
 58.56402; 17.54000;    -0.19170;1.00000
 58.74410; 17.63000;    -0.19143;1.00000
 58.92421; 17.72000;    -0.19189;1.00000
 59.10432; 17.81000;    -0.19281;1.00000
 59.28442; 17.90000;    -0.19300;1.00000
 59.46449; 17.99000;    -0.19235;1.00000
 59.64468; 18.08000;    -0.19318;1.00000
 59.82480; 18.17000;    -0.19272;1.00000
 60.00495; 18.26000;    -0.19198;1.00000
 60.18505; 18.35000;    -0.19300;1.00000
 60.36516; 18.44000;    -0.19198;1.00000
 60.54526; 18.53000;    -0.19254;1.00000
 60.72533; 18.62000;    -0.19198;1.00000
 60.90544; 18.71000;    -0.19263;1.00000
 61.08551; 18.80000;    -0.19170;1.00000
 61.26552; 18.89000;    -0.19189;1.00000
 61.44554; 18.98000;    -0.19216;1.00000
 61.62549; 19.07000;    -0.19272;1.00000
 61.80544; 19.16000;    -0.19207;1.00000
 61.98539; 19.25000;    -0.19263;1.00000
 62.16542; 19.34000;    -0.19189;1.00000
 62.34548; 19.43000;    -0.19161;1.00000
 62.52546; 19.52000;    -0.19272;1.00000
 62.70553; 19.61000;    -0.19290;1.00000
 62.88566; 19.70000;    -0.19198;1.00000
 63.06576; 19.79000;    -0.19226;1.00000
 63.24590; 19.88000;    -0.19263;1.00000
 63.42600; 19.97000;    -0.19244;1.00000
 63.60614; 20.06000;    -0.19235;1.00000
 63.78622; 20.15000;    -0.19318;1.00000
 63.96632; 20.24000;    -0.19383;1.00000
 64.14631; 20.33000;    -0.19355;1.00000
 64.32637; 20.42000;    -0.19179;1.00000
 64.50640; 20.51000;    -0.19328;1.00000
 64.68638; 20.60000;    -0.19355;1.00000
 64.86636; 20.69000;    -0.19272;1.00000
 65.04634; 20.78000;    -0.19383;1.00000
 65.22637; 20.87000;    -0.19374;1.00000
 65.40640; 20.96000;    -0.19328;1.00000
 65.58638; 21.05000;    -0.19309;1.00000
 65.76642; 21.14000;    -0.19438;1.00000
 65.94644; 21.23000;    -0.19291;1.00000
 66.12659; 21.32000;    -0.19383;1.00000
 66.30654; 21.41000;    -0.19411;1.00000
 66.48655; 21.50000;    -0.19337;1.00000
 66.66659; 21.59000;    -0.19420;1.00000
 66.84656; 21.68000;    -0.19392;1.00000
 67.02658; 21.77000;    -0.19365;1.00000
 67.20655; 21.86000;    -0.19401;1.00000
 67.38653; 21.95000;    -0.19337;1.00000
 67.56660; 22.04000;    -0.19392;1.00000
 67.74665; 22.13000;    -0.19300;1.00000
 67.92666; 22.22000;    -0.19327;1.00000
 68.10666; 22.31000;    -0.19290;1.00000
 68.28673; 22.40000;    -0.19309;1.00000
 68.46668; 22.49000;    -0.19263;1.00000
 68.64677; 22.58000;    -0.19364;1.00000
 68.82683; 22.67000;    -0.19364;1.00000
 69.00692; 22.76000;    -0.19337;1.00000
 69.18703; 22.85000;    -0.19290;1.00000
 69.36706; 22.94000;    -0.19309;1.00000
 69.54710; 23.03000;    -0.19439;1.00000
 69.72713; 23.12000;    -0.19318;1.00000
 69.90723; 23.21000;    -0.19383;1.00000
 70.08723; 23.30000;    -0.19439;1.00000
 70.26725; 23.39000;    -0.19309;1.00000
 70.44736; 23.48000;    -0.19475;1.00000
 70.62737; 23.57000;    -0.19420;1.00000
 70.80739; 23.66000;    -0.19420;1.00000
 70.98737; 23.75000;    -0.19374;1.00000
 71.16732; 23.84000;    -0.19503;1.00000
 71.34733; 23.93000;    -0.19420;1.00000
 71.52737; 24.02000;    -0.19318;1.00000
 71.70741; 24.11000;    -0.19420;1.00000
 71.88737; 24.20000;    -0.19466;1.00000
 72.06740; 24.29000;    -0.19457;1.00000
 72.24748; 24.38000;    -0.19429;1.00000
 72.42740; 24.47000;    -0.19401;1.00000
 72.60748; 24.56000;    -0.19531;1.00000
 72.78748; 24.65000;    -0.19383;1.00000
 72.96755; 24.74000;    -0.19466;1.00000
 73.14758; 24.83000;    -0.19438;1.00000
 73.32764; 24.92000;    -0.19512;1.00000
 73.50767; 25.01000;    -0.19494;1.00000
 73.68762; 25.10000;    -0.19438;1.00000
 73.86770; 25.19000;    -0.19512;1.00000
 74.04772; 25.28000;    -0.19522;1.00000
 74.22773; 25.37000;    -0.19522;1.00000
 74.40781; 25.46000;    -0.19540;1.00000
 74.58779; 25.55000;    -0.19522;1.00000
 74.76782; 25.64000;    -0.19503;1.00000
 74.94790; 25.73000;    -0.19494;1.00000
 75.12792; 25.82000;    -0.19485;1.00000
 75.30790; 25.91000;    -0.19439;1.00000
 75.48792; 26.00000;    -0.19531;1.00000
 75.66794; 26.09000;    -0.19522;1.00000
 75.84793; 26.18000;    -0.19494;1.00000
 76.02794; 26.27000;    -0.19522;1.00000
 76.20801; 26.36000;    -0.19494;1.00000
 76.38803; 26.45000;    -0.19457;1.00000
 76.56804; 26.54000;    -0.19512;1.00000
 76.74809; 26.63000;    -0.19596;1.00000
 76.92805; 26.72000;    -0.19605;1.00000
 77.10801; 26.81000;    -0.19466;1.00000
 77.28794; 26.90000;    -0.19484;1.00000
 77.46800; 26.99000;    -0.19559;1.00000
 77.64796; 27.08000;    -0.19540;1.00000
 77.82797; 27.17000;    -0.19586;1.00000
 78.00795; 27.26000;    -0.19577;1.00000
 78.18787; 27.35000;    -0.19568;1.00000
 78.36778; 27.44000;    -0.19577;1.00000
 78.54769; 27.53000;    -0.19439;1.00000
 78.72758; 27.62000;    -0.19549;1.00000
 78.90759; 27.71000;    -0.19559;1.00000
 79.08755; 27.80000;    -0.19521;1.00000
 79.26755; 27.89000;    -0.19531;1.00000
 79.44752; 27.98000;    -0.19494;1.00000
 79.62748; 28.07000;    -0.19531;1.00000
 79.80748; 28.16000;    -0.19577;1.00000
 79.98749; 28.25000;    -0.19549;1.00000
 80.16760; 28.34000;    -0.19586;1.00000
 80.34766; 28.43000;    -0.19559;1.00000
 80.52770; 28.52000;    -0.19558;1.00000
 80.70780; 28.61000;    -0.19559;1.00000
 80.88784; 28.70000;    -0.19614;1.00000
 81.06790; 28.79000;    -0.19642;1.00000
 81.24800; 28.88000;    -0.19596;1.00000
 81.42811; 28.97000;    -0.19494;1.00000
 81.60816; 29.06000;    -0.19586;1.00000
 81.78815; 29.15000;    -0.19623;1.00000
 81.96823; 29.24000;    -0.19596;1.00000
 82.14827; 29.33000;    -0.19660;1.00000
 82.32838; 29.42000;    -0.19605;1.00000
 82.50844; 29.51000;    -0.19475;1.00000
 82.68846; 29.60000;    -0.19484;1.00000
 82.86855; 29.69000;    -0.19614;1.00000
 83.04862; 29.78000;    -0.19577;1.00000
 83.22866; 29.87000;    -0.19614;1.00000
 83.40867; 29.96000;    -0.19623;1.00000
 83.58872; 30.05000;    -0.19614;1.00000
 83.76885; 30.14000;    -0.19586;1.00000
 83.94887; 30.23000;    -0.19614;1.00000
 84.12891; 30.32000;    -0.19614;1.00000
 84.30885; 30.41000;    -0.19568;1.00000
 84.48892; 30.50000;    -0.19697;1.00000
 84.66896; 30.59000;    -0.19475;1.00000
 84.84893; 30.68000;    -0.19559;1.00000
 85.02898; 30.77000;    -0.19633;1.00000
 85.20905; 30.86000;    -0.19586;1.00000
 85.38909; 30.95000;    -0.19586;1.00000
 85.56908; 31.04000;    -0.19679;1.00000
 85.74902; 31.13000;    -0.19642;1.00000
 85.92903; 31.22000;    -0.19660;1.00000
 86.10896; 31.31000;    -0.19624;1.00000
 86.28899; 31.40000;    -0.19670;1.00000
 86.46896; 31.49000;    -0.19725;1.00000
 86.64898; 31.58000;    -0.19744;1.00000
 86.82903; 31.67000;    -0.19716;1.00000
 87.00902; 31.76000;    -0.19586;1.00000
 87.18901; 31.85000;    -0.19827;1.00000
 87.36899; 31.94000;    -0.19679;1.00000
 87.54902; 32.03000;    -0.19707;1.00000
 87.72905; 32.12000;    -0.19688;1.00000
 87.90912; 32.21000;    -0.19716;1.00000
 88.08917; 32.30000;    -0.19743;1.00000
 88.26919; 32.39000;    -0.19697;1.00000
 88.44925; 32.48000;    -0.19753;1.00000
 88.62928; 32.57000;    -0.19744;1.00000
 88.80924; 32.66000;    -0.19661;1.00000
 88.98927; 32.75000;    -0.19707;1.00000
 89.16928; 32.84000;    -0.19660;1.00000
 89.34932; 32.93000;    -0.19688;1.00000
 89.52933; 33.02000;    -0.19642;1.00000
 89.70938; 33.11000;    -0.19744;1.00000
 89.88938; 33.20000;    -0.19808;1.00000
 90.06946; 33.29000;    -0.19661;1.00000
 90.24946; 33.38000;    -0.19688;1.00000
 90.42944; 33.47000;    -0.19679;1.00000
 90.60950; 33.56000;    -0.19818;1.00000
 90.78951; 33.65000;    -0.19725;1.00000
 90.96957; 33.74000;    -0.19670;1.00000
 91.14969; 33.83000;    -0.19697;1.00000
 91.32974; 33.92000;    -0.19660;1.00000
 91.50976; 34.01000;    -0.19781;1.00000
 91.68982; 34.10000;    -0.19743;1.00000
 91.86983; 34.19000;    -0.19707;1.00000
 92.04984; 34.28000;    -0.19753;1.00000
 92.22980; 34.37000;    -0.19734;1.00000
 92.40983; 34.46000;    -0.19799;1.00000
 92.58983; 34.55000;    -0.19799;1.00000
 92.76988; 34.64000;    -0.19790;1.00000
 92.94987; 34.73000;    -0.19762;1.00000
 93.12984; 34.82000;    -0.19734;1.00000
 93.30982; 34.91000;    -0.19799;1.00000
 93.48976; 35.00000;    -0.19808;1.00000
 93.66980; 35.09000;    -0.19707;1.00000
 93.84979; 35.18000;    -0.19651;1.00000
 94.02973; 35.27000;    -0.19891;1.00000
 94.20985; 35.36000;    -0.19697;1.00000
 94.38984; 35.45000;    -0.19799;1.00000
 94.56989; 35.54000;    -0.19762;1.00000
 94.74985; 35.63000;    -0.19753;1.00000
 94.92987; 35.72000;    -0.19697;1.00000
 95.10989; 35.81000;    -0.19790;1.00000
 95.28990; 35.90000;    -0.19790;1.00000
 95.46989; 35.99000;    -0.19790;1.00000
 95.64979; 36.08000;    -0.19808;1.00000
 95.82983; 36.17000;    -0.19697;1.00000
 96.00984; 36.26000;    -0.19697;1.00000
 96.18980; 36.35000;    -0.19790;1.00000
 96.36987; 36.44000;    -0.19781;1.00000
 96.54989; 36.53000;    -0.19771;1.00000
 96.72988; 36.62000;    -0.19901;1.00000
 96.90996; 36.71000;    -0.19882;1.00000
 97.08996; 36.80000;    -0.19762;1.00000
 97.26998; 36.89000;    -0.19882;1.00000
 97.45003; 36.98000;    -0.19882;1.00000
 97.63008; 37.07000;    -0.19827;1.00000
 97.81014; 37.16000;    -0.19882;1.00000
 97.99009; 37.25000;    -0.19854;1.00000
 98.17017; 37.34000;    -0.19827;1.00000
 98.35016; 37.43000;    -0.19725;1.00000
 98.53022; 37.52000;    -0.19771;1.00000
 98.71026; 37.61000;    -0.19855;1.00000
 98.89028; 37.70000;    -0.19854;1.00000
 99.07037; 37.79000;    -0.19873;1.00000
 99.25042; 37.88000;    -0.19947;1.00000
 99.43055; 37.97000;    -0.19892;1.00000
 99.61063; 38.06000;    -0.19910;1.00000
 99.79066; 38.15000;    -0.19901;1.00000
 99.97079; 38.24000;    -0.19873;1.00000
100.15085; 38.33000;    -0.19873;1.00000
100.33087; 38.42000;    -0.19984;1.00000
100.51086; 38.51000;    -0.19827;1.00000
100.69091; 38.60000;    -0.19845;1.00000
100.87090; 38.69000;    -0.19966;1.00000
101.05085; 38.78000;    -0.20058;1.00000
101.23086; 38.87000;    -0.19984;1.00000
101.41079; 38.96000;    -0.19929;1.00000
101.59081; 39.05000;    -0.19993;1.00000
101.77076; 39.14000;    -0.19827;1.00000
101.95071; 39.23000;    -0.19901;1.00000
102.13060; 39.32000;    -0.19882;1.00000
102.31057; 39.41000;    -0.19919;1.00000
102.49053; 39.50000;    -0.19928;1.00000
102.67049; 39.59000;    -0.19947;1.00000
102.85045; 39.68000;    -0.19827;1.00000
103.03042; 39.77000;    -0.19928;1.00000
103.21040; 39.86000;    -0.20003;1.00000
103.39038; 39.95000;    -0.19993;1.00000
103.57026; 40.04000;    -0.20040;1.00000
103.75025; 40.13000;    -0.19984;1.00000
103.93018; 40.22000;    -0.19956;1.00000
104.11022; 40.31000;    -0.19956;1.00000
104.29018; 40.40000;    -0.19956;1.00000
104.47022; 40.49000;    -0.19928;1.00000
104.65023; 40.58000;    -0.19882;1.00000
104.83026; 40.67000;    -0.19928;1.00000
105.01026; 40.76000;    -0.19919;1.00000
105.19031; 40.85000;    -0.19808;1.00000
105.37034; 40.94000;    -0.19929;1.00000
105.55038; 41.03000;    -0.19929;1.00000
105.73042; 41.12000;    -0.19975;1.00000
105.91054; 41.21000;    -0.19873;1.00000
106.09053; 41.30000;    -0.19892;1.00000
106.27056; 41.39000;    -0.19808;1.00000
106.45064; 41.48000;    -0.19966;1.00000
106.63064; 41.57000;    -0.19984;1.00000
106.81066; 41.66000;    -0.19966;1.00000
106.99060; 41.75000;    -0.19993;1.00000
107.17055; 41.84000;    -0.19938;1.00000
107.35052; 41.93000;    -0.20021;1.00000
107.53061; 42.02000;    -0.19845;1.00000
107.71065; 42.11000;    -0.19956;1.00000
107.89063; 42.20000;    -0.19827;1.00000
108.07066; 42.29000;    -0.19929;1.00000
108.25073; 42.38000;    -0.19993;1.00000
108.43063; 42.47000;    -0.20058;1.00000
108.61066; 42.56000;    -0.19901;1.00000
108.79064; 42.65000;    -0.19919;1.00000
108.97070; 42.74000;    -0.20003;1.00000
109.15078; 42.83000;    -0.20123;1.00000
109.33078; 42.92000;    -0.20012;1.00000
109.51079; 43.01000;    -0.19975;1.00000
109.69078; 43.10000;    -0.19947;1.00000
109.87082; 43.19000;    -0.19947;1.00000
110.05080; 43.28000;    -0.20021;1.00000
110.23089; 43.37000;    -0.19910;1.00000
110.41095; 43.46000;    -0.20067;1.00000
110.59092; 43.55000;    -0.19947;1.00000
110.77091; 43.64000;    -0.19919;1.00000
110.95098; 43.73000;    -0.19966;1.00000
111.13099; 43.82000;    -0.19975;1.00000
111.31104; 43.91000;    -0.19938;1.00000
111.49099; 44.00000;    -0.19901;1.00000
111.67098; 44.09000;    -0.19836;1.00000
111.85094; 44.18000;    -0.19892;1.00000
112.03092; 44.27000;    -0.19910;1.00000
112.21087; 44.36000;    -0.19901;1.00000
112.39082; 44.45000;    -0.19901;1.00000
112.57086; 44.54000;    -0.19938;1.00000
112.75080; 44.63000;    -0.19771;1.00000
112.93073; 44.72000;    -0.19928;1.00000
113.11070; 44.81000;    -0.19910;1.00000
113.29069; 44.90000;    -0.19762;1.00000
113.47064; 44.99000;    -0.19975;1.00000
113.65065; 45.08000;    -0.19845;1.00000
113.83066; 45.17000;    -0.19910;1.00000
114.01063; 45.26000;    -0.19910;1.00000
114.19062; 45.35000;    -0.19817;1.00000
114.37059; 45.44000;    -0.19771;1.00000
114.55055; 45.53000;    -0.19891;1.00000
114.73054; 45.62000;    -0.19827;1.00000
114.91064; 45.71000;    -0.19873;1.00000
115.09062; 45.80000;    -0.19947;1.00000
115.27062; 45.89000;    -0.19836;1.00000
115.45067; 45.98000;    -0.19799;1.00000
115.63064; 46.07000;    -0.19836;1.00000
115.81061; 46.16000;    -0.19892;1.00000
115.99061; 46.25000;    -0.19864;1.00000
116.17058; 46.34000;    -0.19808;1.00000
116.35063; 46.43000;    -0.19781;1.00000
116.53061; 46.52000;    -0.19938;1.00000
116.71067; 46.61000;    -0.19929;1.00000
116.89064; 46.70000;    -0.19919;1.00000
117.07066; 46.79000;    -0.19855;1.00000
117.25065; 46.88000;    -0.19910;1.00000
117.43065; 46.97000;    -0.19919;1.00000
117.61068; 47.06000;    -0.19855;1.00000
117.79068; 47.15000;    -0.19891;1.00000
117.97074; 47.24000;    -0.19873;1.00000
118.15070; 47.33000;    -0.19808;1.00000
118.33067; 47.42000;    -0.19781;1.00000
118.51075; 47.51000;    -0.19808;1.00000
118.69071; 47.60000;    -0.19799;1.00000
118.87077; 47.69000;    -0.19744;1.00000
119.05073; 47.78000;    -0.19808;1.00000
119.23069; 47.87000;    -0.19762;1.00000
119.41070; 47.96000;    -0.19781;1.00000
119.59072; 48.05000;    -0.19817;1.00000
119.77072; 48.14000;    -0.19836;1.00000
119.95072; 48.23000;    -0.19725;1.00000
120.13075; 48.32000;    -0.19716;1.00000
120.31073; 48.41000;    -0.19781;1.00000
120.49071; 48.50000;    -0.19707;1.00000
120.67068; 48.59000;    -0.19651;1.00000
120.85061; 48.68000;    -0.19651;1.00000
121.03060; 48.77000;    -0.19753;1.00000
121.21064; 48.86000;    -0.19799;1.00000
121.39063; 48.95000;    -0.19744;1.00000
121.57061; 49.04000;    -0.19651;1.00000
121.75061; 49.13000;    -0.19670;1.00000
121.93054; 49.22000;    -0.19688;1.00000
122.11053; 49.31000;    -0.19633;1.00000
122.29059; 49.40000;    -0.19716;1.00000
122.47062; 49.49000;    -0.19762;1.00000
122.65062; 49.58000;    -0.19707;1.00000
122.83062; 49.67000;    -0.19623;1.00000
123.01063; 49.76000;    -0.19743;1.00000
123.19068; 49.85000;    -0.19651;1.00000
123.37067; 49.94000;    -0.19679;1.00000
123.55073; 50.03000;    -0.19633;1.00000
123.73081; 50.12000;    -0.19586;1.00000
123.91078; 50.21000;    -0.19734;1.00000
124.09076; 50.30000;    -0.19707;1.00000
124.27075; 50.39000;    -0.19633;1.00000
124.45071; 50.48000;    -0.19605;1.00000
124.63074; 50.57000;    -0.19614;1.00000
124.81076; 50.66000;    -0.19494;1.00000
124.99074; 50.75000;    -0.19485;1.00000
125.17072; 50.84000;    -0.19503;1.00000
125.35073; 50.93000;    -0.19577;1.00000
125.53069; 51.02000;    -0.19707;1.00000
125.71063; 51.11000;    -0.19522;1.00000
125.89072; 51.20000;    -0.19596;1.00000
126.07076; 51.29000;    -0.19513;1.00000
126.25082; 51.38000;    -0.19457;1.00000
126.43084; 51.47000;    -0.19503;1.00000
126.61085; 51.56000;    -0.19494;1.00000
126.79093; 51.65000;    -0.19448;1.00000
126.97100; 51.74000;    -0.19392;1.00000
127.15102; 51.83000;    -0.19494;1.00000
127.33104; 51.92000;    -0.19438;1.00000
127.51112; 52.01000;    -0.19383;1.00000
127.69120; 52.10000;    -0.19438;1.00000
127.87117; 52.19000;    -0.19466;1.00000
128.05121; 52.28000;    -0.19254;1.00000
128.23123; 52.37000;    -0.19337;1.00000
128.41131; 52.46000;    -0.19318;1.00000
128.59137; 52.55000;    -0.19364;1.00000
128.77133; 52.64000;    -0.19300;1.00000
128.95131; 52.73000;    -0.19207;1.00000
129.13134; 52.82000;    -0.19309;1.00000
129.31141; 52.91000;    -0.19346;1.00000
129.49139; 53.00000;    -0.19364;1.00000
129.67138; 53.09000;    -0.19198;1.00000
129.85133; 53.18000;    -0.19309;1.00000
130.03134; 53.27000;    -0.19189;1.00000
130.21138; 53.36000;    -0.19244;1.00000
130.39135; 53.45000;    -0.19179;1.00000
130.57134; 53.54000;    -0.19189;1.00000
130.75139; 53.63000;    -0.19124;1.00000
130.93141; 53.72000;    -0.19161;1.00000
131.11141; 53.81000;    -0.18985;1.00000
131.29135; 53.90000;    -0.19078;1.00000
131.47133; 53.99000;    -0.18985;1.00000
131.65129; 54.08000;    -0.19068;1.00000
131.83132; 54.17000;    -0.18957;1.00000
132.01138; 54.26000;    -0.18994;1.00000
132.19138; 54.35000;    -0.18911;1.00000
132.37140; 54.44000;    -0.18995;1.00000
132.55143; 54.53000;    -0.18911;1.00000
132.73143; 54.62000;    -0.18772;1.00000
132.91143; 54.71000;    -0.18837;1.00000
133.09146; 54.80000;    -0.18745;1.00000
133.27143; 54.89000;    -0.18884;1.00000
133.45146; 54.98000;    -0.18828;1.00000
