#EXPORTTYPE:DATA SINGLE
#FTYPE:ANSI
#IDENTITY:001926
#DECIMAL:POINT
#SEPARATOR:SEMICOLON
#DATE/TIME:15.12.2016 08:08
#TEMPCAL:TCALZERO.TMX
#SENSITIVITY:SENSZERO.EXX
#REMARK:
#SAMPLE:ÂÊ-36
#SAMPLE MASS /mg:8.16
#MATERIAL:íåò
#REFERENCE:
#REFERENCE MASS /mg:0
#TYPE OF CRUCIBLE:Pan Al, closed
#SAMPLE CRUCIBLE MASS /mg:0
#REFERENCE CRUCIBLE MASS /mg:0
#M.RANGE /µV:5000
#TAU-R:---
#CORR. CODE:020
#EXO:+1
#RANGE:-10°C/4,0(K/min)/270°C
#SEGMENT:S2/3
#SEG. 2:-10°C/4,0(K/min)/270°C

##Temp./°C;Time/min;DSC/(uV/mg);Sensit./(uV/mW)
 31.28046;11.97300;    -0.37331;1.00000
 31.47396;12.02300;    -0.37338;1.00000
 31.66770;12.07300;    -0.37307;1.00000
 31.86157;12.12300;    -0.37396;1.00000
 32.05563;12.17300;    -0.37592;1.00000
 32.24983;12.22300;    -0.37560;1.00000
 32.44422;12.27300;    -0.37730;1.00000
 32.63885;12.32300;    -0.37765;1.00000
 32.83363;12.37300;    -0.37832;1.00000
 33.02848;12.42300;    -0.37816;1.00000
 33.22360;12.47300;    -0.37879;1.00000
 33.41886;12.52300;    -0.37917;1.00000
 33.61425;12.57300;    -0.38007;1.00000
 33.80994;12.62300;    -0.38031;1.00000
 34.00581;12.67300;    -0.38128;1.00000
 34.20196;12.72300;    -0.38243;1.00000
 34.39816;12.77300;    -0.38219;1.00000
 34.59457;12.82300;    -0.38285;1.00000
 34.79106;12.87300;    -0.38382;1.00000
 34.98773;12.92300;    -0.38429;1.00000
 35.18460;12.97300;    -0.38530;1.00000
 35.38160;13.02300;    -0.38563;1.00000
 35.57854;13.07300;    -0.38528;1.00000
 35.77558;13.12300;    -0.38549;1.00000
 35.97262;13.17300;    -0.38558;1.00000
 36.16982;13.22300;    -0.38634;1.00000
 36.36709;13.27300;    -0.38692;1.00000
 36.56448;13.32300;    -0.38746;1.00000
 36.76199;13.37300;    -0.38728;1.00000
 36.95955;13.42300;    -0.38915;1.00000
 37.15714;13.47300;    -0.38999;1.00000
 37.35486;13.52300;    -0.38910;1.00000
 37.55271;13.57300;    -0.38922;1.00000
 37.75071;13.62300;    -0.39078;1.00000
 37.94885;13.67300;    -0.38936;1.00000
 38.14696;13.72300;    -0.39026;1.00000
 38.34524;13.77300;    -0.39125;1.00000
 38.54345;13.82300;    -0.39208;1.00000
 38.74185;13.87300;    -0.39244;1.00000
 38.94038;13.92300;    -0.39255;1.00000
 39.13897;13.97300;    -0.39277;1.00000
 39.33754;14.02300;    -0.39360;1.00000
 39.53614;14.07300;    -0.39275;1.00000
 39.73483;14.12300;    -0.39326;1.00000
 39.93360;14.17300;    -0.39387;1.00000
 40.13246;14.22300;    -0.39456;1.00000
 40.33128;14.27300;    -0.39488;1.00000
 40.53030;14.32300;    -0.39398;1.00000
 40.72930;14.37300;    -0.39466;1.00000
 40.92830;14.42300;    -0.39587;1.00000
 41.12729;14.47300;    -0.39663;1.00000
 41.32642;14.52300;    -0.39568;1.00000
 41.52568;14.57300;    -0.39691;1.00000
 41.72483;14.62300;    -0.39588;1.00000
 41.92419;14.67300;    -0.39780;1.00000
 42.12348;14.72300;    -0.39777;1.00000
 42.32294;14.77300;    -0.39740;1.00000
 42.52237;14.82300;    -0.39842;1.00000
 42.72184;14.87300;    -0.39799;1.00000
 42.92137;14.92300;    -0.39863;1.00000
 43.12090;14.97300;    -0.39952;1.00000
 43.32052;15.02300;    -0.39985;1.00000
 43.52011;15.07300;    -0.39918;1.00000
 43.71968;15.12300;    -0.40030;1.00000
 43.91935;15.17300;    -0.39967;1.00000
 44.11904;15.22300;    -0.39902;1.00000
 44.31864;15.27300;    -0.40078;1.00000
 44.51837;15.32300;    -0.39983;1.00000
 44.71807;15.37300;    -0.40115;1.00000
 44.91784;15.42300;    -0.40226;1.00000
 45.11759;15.47300;    -0.40094;1.00000
 45.31741;15.52300;    -0.40184;1.00000
 45.51723;15.57300;    -0.40276;1.00000
 45.71712;15.62300;    -0.40191;1.00000
 45.91694;15.67300;    -0.40171;1.00000
 46.11670;15.72300;    -0.40163;1.00000
 46.31653;15.77300;    -0.40324;1.00000
 46.51639;15.82300;    -0.40187;1.00000
 46.71629;15.87300;    -0.40303;1.00000
 46.91614;15.92300;    -0.40347;1.00000
 47.11604;15.97300;    -0.40301;1.00000
 47.31587;16.02300;    -0.40314;1.00000
 47.51573;16.07300;    -0.40397;1.00000
 47.71577;16.12300;    -0.40350;1.00000
 47.91570;16.17300;    -0.40431;1.00000
 48.11579;16.22300;    -0.40445;1.00000
 48.31601;16.27300;    -0.40414;1.00000
 48.51604;16.32300;    -0.40464;1.00000
 48.71606;16.37300;    -0.40427;1.00000
 48.91616;16.42300;    -0.40389;1.00000
 49.11630;16.47300;    -0.40454;1.00000
 49.31644;16.52300;    -0.40333;1.00000
 49.51645;16.57300;    -0.40449;1.00000
 49.71657;16.62300;    -0.40473;1.00000
 49.91676;16.67300;    -0.40492;1.00000
 50.11675;16.72300;    -0.40511;1.00000
 50.31673;16.77300;    -0.40461;1.00000
 50.51674;16.82300;    -0.40494;1.00000
 50.71687;16.87300;    -0.40625;1.00000
 50.91700;16.92300;    -0.40613;1.00000
 51.11714;16.97300;    -0.40540;1.00000
 51.31724;17.02300;    -0.40569;1.00000
 51.51745;17.07300;    -0.40645;1.00000
 51.71759;17.12300;    -0.40493;1.00000
 51.91769;17.17300;    -0.40681;1.00000
 52.11781;17.22300;    -0.40612;1.00000
 52.31799;17.27300;    -0.40624;1.00000
 52.51816;17.32300;    -0.40571;1.00000
 52.71834;17.37300;    -0.40596;1.00000
 52.91839;17.42300;    -0.40670;1.00000
 53.11847;17.47300;    -0.40568;1.00000
 53.31854;17.52300;    -0.40650;1.00000
 53.51873;17.57300;    -0.40625;1.00000
 53.71887;17.62300;    -0.40633;1.00000
 53.91914;17.67300;    -0.40652;1.00000
 54.11930;17.72300;    -0.40654;1.00000
 54.31938;17.77300;    -0.40697;1.00000
 54.51953;17.82300;    -0.40699;1.00000
 54.71969;17.87300;    -0.40661;1.00000
 54.91988;17.92300;    -0.40678;1.00000
 55.12014;17.97300;    -0.40604;1.00000
 55.32040;18.02300;    -0.40622;1.00000
 55.52065;18.07300;    -0.40718;1.00000
 55.72079;18.12300;    -0.40727;1.00000
 55.92084;18.17300;    -0.40700;1.00000
 56.12110;18.22300;    -0.40782;1.00000
 56.32128;18.27300;    -0.40688;1.00000
 56.52151;18.32300;    -0.40783;1.00000
 56.72173;18.37300;    -0.40719;1.00000
 56.92194;18.42300;    -0.40710;1.00000
 57.12210;18.47300;    -0.40755;1.00000
 57.32226;18.52300;    -0.40773;1.00000
 57.52247;18.57300;    -0.40804;1.00000
 57.72269;18.62300;    -0.40748;1.00000
 57.92296;18.67300;    -0.40766;1.00000
 58.12302;18.72300;    -0.40757;1.00000
 58.32328;18.77300;    -0.40721;1.00000
 58.52337;18.82300;    -0.40767;1.00000
 58.72351;18.87300;    -0.40688;1.00000
 58.92368;18.92300;    -0.40782;1.00000
 59.12381;18.97300;    -0.40723;1.00000
 59.32385;19.02300;    -0.40765;1.00000
 59.52394;19.07300;    -0.40828;1.00000
 59.72406;19.12300;    -0.40856;1.00000
 59.92414;19.17300;    -0.40727;1.00000
 60.12434;19.22300;    -0.40875;1.00000
 60.32455;19.27300;    -0.40812;1.00000
 60.52475;19.32300;    -0.40784;1.00000
 60.72489;19.37300;    -0.40895;1.00000
 60.92504;19.42300;    -0.40840;1.00000
 61.12524;19.47300;    -0.40791;1.00000
 61.32559;19.52300;    -0.40746;1.00000
 61.52578;19.57300;    -0.40898;1.00000
 61.72600;19.62300;    -0.40850;1.00000
 61.92618;19.67300;    -0.40962;1.00000
 62.12637;19.72300;    -0.40936;1.00000
 62.32659;19.77300;    -0.40893;1.00000
 62.52667;19.82300;    -0.40860;1.00000
 62.72689;19.87300;    -0.40869;1.00000
 62.92698;19.92300;    -0.40927;1.00000
 63.12716;19.97300;    -0.40991;1.00000
 63.32722;20.02300;    -0.40963;1.00000
 63.52731;20.07300;    -0.40894;1.00000
 63.72734;20.12300;    -0.40974;1.00000
 63.92743;20.17300;    -0.40829;1.00000
 64.12757;20.22300;    -0.40980;1.00000
 64.32757;20.27300;    -0.40972;1.00000
 64.52781;20.32300;    -0.40953;1.00000
 64.72802;20.37300;    -0.41037;1.00000
 64.92835;20.42300;    -0.41093;1.00000
 65.12859;20.47300;    -0.41026;1.00000
 65.32871;20.52300;    -0.40973;1.00000
 65.52896;20.57300;    -0.41209;1.00000
 65.72926;20.62300;    -0.41148;1.00000
 65.92937;20.67300;    -0.41129;1.00000
 66.12957;20.72300;    -0.41072;1.00000
 66.32979;20.77300;    -0.41085;1.00000
 66.52994;20.82300;    -0.41008;1.00000
 66.73008;20.87300;    -0.41017;1.00000
 66.93016;20.92300;    -0.41008;1.00000
 67.13028;20.97300;    -0.41093;1.00000
 67.33054;21.02300;    -0.41052;1.00000
 67.53067;21.07300;    -0.41147;1.00000
 67.73079;21.12300;    -0.41177;1.00000
 67.93106;21.17300;    -0.41178;1.00000
 68.13110;21.22300;    -0.41122;1.00000
 68.33126;21.27300;    -0.41195;1.00000
 68.53130;21.32300;    -0.41178;1.00000
 68.73136;21.37300;    -0.41190;1.00000
 68.93139;21.42300;    -0.40932;1.00000
 69.13145;21.47300;    -0.41123;1.00000
 69.33140;21.52300;    -0.41001;1.00000
 69.53145;21.57300;    -0.41179;1.00000
 69.73153;21.62300;    -0.41138;1.00000
 69.93147;21.67300;    -0.41202;1.00000
 70.13159;21.72300;    -0.41233;1.00000
 70.33167;21.77300;    -0.41111;1.00000
 70.53175;21.82300;    -0.41196;1.00000
 70.73183;21.87300;    -0.41185;1.00000
 70.93200;21.92300;    -0.41170;1.00000
 71.13210;21.97300;    -0.41259;1.00000
 71.33220;22.02300;    -0.41213;1.00000
 71.53231;22.07300;    -0.41251;1.00000
 71.73228;22.12300;    -0.41196;1.00000
 71.93231;22.17300;    -0.41206;1.00000
 72.13233;22.22300;    -0.41325;1.00000
 72.33234;22.27300;    -0.41239;1.00000
 72.53237;22.32300;    -0.41246;1.00000
 72.73236;22.37300;    -0.41241;1.00000
 72.93231;22.42300;    -0.41222;1.00000
 73.13232;22.47300;    -0.41243;1.00000
 73.33238;22.52300;    -0.41347;1.00000
 73.53237;22.57300;    -0.41273;1.00000
 73.73242;22.62300;    -0.41403;1.00000
 73.93261;22.67300;    -0.41429;1.00000
 74.13271;22.72300;    -0.41390;1.00000
 74.33285;22.77300;    -0.41440;1.00000
 74.53290;22.82300;    -0.41465;1.00000
 74.73296;22.87300;    -0.41477;1.00000
 74.93302;22.92300;    -0.41512;1.00000
 75.13310;22.97300;    -0.41449;1.00000
 75.33310;23.02300;    -0.41381;1.00000
 75.53310;23.07300;    -0.41452;1.00000
 75.73312;23.12300;    -0.41524;1.00000
 75.93304;23.17300;    -0.41466;1.00000
 76.13304;23.22300;    -0.41513;1.00000
 76.33310;23.27300;    -0.41371;1.00000
 76.53316;23.32300;    -0.41449;1.00000
 76.73330;23.37300;    -0.41598;1.00000
 76.93343;23.42300;    -0.41634;1.00000
 77.13351;23.47300;    -0.41486;1.00000
 77.33361;23.52300;    -0.41532;1.00000
 77.53371;23.57300;    -0.41542;1.00000
 77.73381;23.62300;    -0.41619;1.00000
 77.93384;23.67300;    -0.41605;1.00000
 78.13396;23.72300;    -0.41800;1.00000
 78.33404;23.77300;    -0.41717;1.00000
 78.53414;23.82300;    -0.41560;1.00000
 78.73428;23.87300;    -0.41632;1.00000
 78.93433;23.92300;    -0.41589;1.00000
 79.13439;23.97300;    -0.41680;1.00000
 79.33442;24.02300;    -0.41673;1.00000
 79.53455;24.07300;    -0.41717;1.00000
 79.73467;24.12300;    -0.41728;1.00000
 79.93480;24.17300;    -0.41763;1.00000
 80.13492;24.22300;    -0.41804;1.00000
 80.33491;24.27300;    -0.41726;1.00000
 80.53506;24.32300;    -0.41770;1.00000
 80.73498;24.37300;    -0.41757;1.00000
 80.93508;24.42300;    -0.41784;1.00000
 81.13518;24.47300;    -0.41817;1.00000
 81.33518;24.52300;    -0.41710;1.00000
 81.53519;24.57300;    -0.41822;1.00000
 81.73514;24.62300;    -0.41718;1.00000
 81.93515;24.67300;    -0.41785;1.00000
 82.13512;24.72300;    -0.41748;1.00000
 82.33526;24.77300;    -0.41849;1.00000
 82.53529;24.82300;    -0.41800;1.00000
 82.73544;24.87300;    -0.41952;1.00000
 82.93549;24.92300;    -0.41989;1.00000
 83.13557;24.97300;    -0.41832;1.00000
 83.33575;25.02300;    -0.41896;1.00000
 83.53581;25.07300;    -0.41793;1.00000
 83.73598;25.12300;    -0.41832;1.00000
 83.93608;25.17300;    -0.41850;1.00000
 84.13624;25.22300;    -0.41906;1.00000
 84.33630;25.27300;    -0.41955;1.00000
 84.53637;25.32300;    -0.41878;1.00000
 84.73637;25.37300;    -0.41905;1.00000
 84.93635;25.42300;    -0.41892;1.00000
 85.13641;25.47300;    -0.42047;1.00000
 85.33650;25.52300;    -0.41975;1.00000
 85.53669;25.57300;    -0.41979;1.00000
 85.73679;25.62300;    -0.41935;1.00000
 85.93682;25.67300;    -0.41907;1.00000
 86.13688;25.72300;    -0.41973;1.00000
 86.33698;25.77300;    -0.41968;1.00000
 86.53690;25.82300;    -0.41990;1.00000
 86.73701;25.87300;    -0.41956;1.00000
 86.93723;25.92300;    -0.41991;1.00000
 87.13729;25.97300;    -0.42018;1.00000
 87.33724;26.02300;    -0.42021;1.00000
 87.53724;26.07300;    -0.42019;1.00000
 87.73730;26.12300;    -0.42046;1.00000
 87.93743;26.17300;    -0.42001;1.00000
 88.13755;26.22300;    -0.42008;1.00000
 88.33771;26.27300;    -0.42065;1.00000
 88.53784;26.32300;    -0.41980;1.00000
 88.73785;26.37300;    -0.42186;1.00000
 88.93780;26.42300;    -0.41983;1.00000
 89.13781;26.47300;    -0.42168;1.00000
 89.33791;26.52300;    -0.42026;1.00000
 89.53800;26.57300;    -0.42037;1.00000
 89.73802;26.62300;    -0.42019;1.00000
 89.93802;26.67300;    -0.42105;1.00000
 90.13800;26.72300;    -0.42046;1.00000
 90.33791;26.77300;    -0.42109;1.00000
 90.53792;26.82300;    -0.42133;1.00000
 90.73796;26.87300;    -0.42155;1.00000
 90.93798;26.92300;    -0.42131;1.00000
 91.13806;26.97300;    -0.42125;1.00000
 91.33802;27.02300;    -0.42083;1.00000
 91.53806;27.07300;    -0.42316;1.00000
 91.73804;27.12300;    -0.42206;1.00000
 91.93804;27.17300;    -0.42152;1.00000
 92.13806;27.22300;    -0.42241;1.00000
 92.33811;27.27300;    -0.42140;1.00000
 92.53810;27.32300;    -0.42262;1.00000
 92.73820;27.37300;    -0.42195;1.00000
 92.93825;27.42300;    -0.42237;1.00000
 93.13836;27.47300;    -0.42299;1.00000
 93.33844;27.52300;    -0.42311;1.00000
 93.53853;27.57300;    -0.42215;1.00000
 93.73849;27.62300;    -0.42291;1.00000
 93.93861;27.67300;    -0.42251;1.00000
 94.13871;27.72300;    -0.42320;1.00000
 94.33873;27.77300;    -0.42364;1.00000
 94.53879;27.82300;    -0.42306;1.00000
 94.73885;27.87300;    -0.42343;1.00000
 94.93878;27.92300;    -0.42282;1.00000
 95.13882;27.97300;    -0.42334;1.00000
 95.33887;28.02300;    -0.42306;1.00000
 95.53886;28.07300;    -0.42282;1.00000
 95.73897;28.12300;    -0.42382;1.00000
 95.93904;28.17300;    -0.42356;1.00000
 96.13906;28.22300;    -0.42466;1.00000
 96.33926;28.27300;    -0.42400;1.00000
 96.53924;28.32300;    -0.42329;1.00000
 96.73910;28.37300;    -0.42362;1.00000
 96.93919;28.42300;    -0.42385;1.00000
 97.13920;28.47300;    -0.42442;1.00000
 97.33916;28.52300;    -0.42466;1.00000
 97.53914;28.57300;    -0.42447;1.00000
 97.73912;28.62300;    -0.42386;1.00000
 97.93919;28.67300;    -0.42570;1.00000
 98.13912;28.72300;    -0.42512;1.00000
 98.33906;28.77300;    -0.42438;1.00000
 98.53908;28.82300;    -0.42468;1.00000
 98.73914;28.87300;    -0.42420;1.00000
 98.93910;28.92300;    -0.42558;1.00000
 99.13914;28.97300;    -0.42524;1.00000
 99.33916;29.02300;    -0.42552;1.00000
 99.53922;29.07300;    -0.42535;1.00000
 99.73920;29.12300;    -0.42644;1.00000
 99.93909;29.17300;    -0.42532;1.00000
100.13916;29.22300;    -0.42676;1.00000
100.33922;29.27300;    -0.42674;1.00000
100.53922;29.32300;    -0.42692;1.00000
100.73939;29.37300;    -0.42558;1.00000
100.93943;29.42300;    -0.42515;1.00000
101.13947;29.47300;    -0.42732;1.00000
101.33941;29.52300;    -0.42703;1.00000
101.53939;29.57300;    -0.42737;1.00000
101.73940;29.62300;    -0.42669;1.00000
101.93955;29.67300;    -0.42615;1.00000
102.13965;29.72300;    -0.42720;1.00000
102.33963;29.77300;    -0.42613;1.00000
102.53949;29.82300;    -0.42779;1.00000
102.73937;29.87300;    -0.42698;1.00000
102.93939;29.92300;    -0.42876;1.00000
103.13947;29.97300;    -0.42810;1.00000
103.33963;30.02300;    -0.42669;1.00000
103.53969;30.07300;    -0.42719;1.00000
103.73971;30.12300;    -0.42785;1.00000
103.93964;30.17300;    -0.42898;1.00000
104.13951;30.22300;    -0.42772;1.00000
104.33953;30.27300;    -0.42757;1.00000
104.53967;30.32300;    -0.42795;1.00000
104.73973;30.37300;    -0.42794;1.00000
104.93974;30.42300;    -0.42740;1.00000
105.13978;30.47300;    -0.42821;1.00000
105.33979;30.52300;    -0.42834;1.00000
105.53972;30.57300;    -0.42850;1.00000
105.73969;30.62300;    -0.42819;1.00000
105.93978;30.67300;    -0.42739;1.00000
106.13990;30.72300;    -0.42830;1.00000
106.33985;30.77300;    -0.42823;1.00000
106.53980;30.82300;    -0.42731;1.00000
106.73975;30.87300;    -0.42896;1.00000
106.93970;30.92300;    -0.42815;1.00000
107.13967;30.97300;    -0.42765;1.00000
107.33955;31.02300;    -0.42776;1.00000
107.53959;31.07300;    -0.42795;1.00000
107.73967;31.12300;    -0.42776;1.00000
107.93964;31.17300;    -0.42861;1.00000
108.13965;31.22300;    -0.42831;1.00000
108.33971;31.27300;    -0.42963;1.00000
108.53982;31.32300;    -0.42925;1.00000
108.73993;31.37300;    -0.42979;1.00000
108.94004;31.42300;    -0.42844;1.00000
109.14010;31.47300;    -0.42974;1.00000
109.34024;31.52300;    -0.42942;1.00000
109.54019;31.57300;    -0.43007;1.00000
109.74018;31.62300;    -0.42970;1.00000
109.94017;31.67300;    -0.42953;1.00000
110.14030;31.72300;    -0.43031;1.00000
110.34034;31.77300;    -0.43094;1.00000
110.54037;31.82300;    -0.42925;1.00000
110.74037;31.87300;    -0.42926;1.00000
110.94033;31.92300;    -0.42927;1.00000
111.14039;31.97300;    -0.42971;1.00000
111.34040;32.02300;    -0.42984;1.00000
111.54048;32.07300;    -0.42980;1.00000
111.74058;32.12300;    -0.42857;1.00000
111.94064;32.17300;    -0.42907;1.00000
112.14067;32.22300;    -0.43086;1.00000
112.34059;32.27300;    -0.43121;1.00000
112.54046;32.32300;    -0.42970;1.00000
112.74041;32.37300;    -0.43028;1.00000
112.94047;32.42300;    -0.42964;1.00000
113.14047;32.47300;    -0.42982;1.00000
113.34042;32.52300;    -0.42971;1.00000
113.54040;32.57300;    -0.43042;1.00000
113.74039;32.62300;    -0.43103;1.00000
113.94039;32.67300;    -0.43072;1.00000
114.14039;32.72300;    -0.43096;1.00000
114.34040;32.77300;    -0.43019;1.00000
114.54060;32.82300;    -0.43191;1.00000
114.74076;32.87300;    -0.43055;1.00000
114.94080;32.92300;    -0.43047;1.00000
115.14088;32.97300;    -0.42992;1.00000
115.34099;33.02300;    -0.43065;1.00000
115.54116;33.07300;    -0.43069;1.00000
115.74115;33.12300;    -0.43065;1.00000
115.94117;33.17300;    -0.43039;1.00000
116.14134;33.22300;    -0.42972;1.00000
116.34142;33.27300;    -0.43098;1.00000
116.54144;33.32300;    -0.43122;1.00000
116.74143;33.37300;    -0.43093;1.00000
116.94143;33.42300;    -0.43085;1.00000
117.14143;33.47300;    -0.43142;1.00000
117.34148;33.52300;    -0.43141;1.00000
117.54138;33.57300;    -0.43073;1.00000
117.74147;33.62300;    -0.43160;1.00000
117.94145;33.67300;    -0.43252;1.00000
118.14143;33.72300;    -0.43168;1.00000
118.34136;33.77300;    -0.43214;1.00000
118.54130;33.82300;    -0.43178;1.00000
118.74131;33.87300;    -0.43153;1.00000
118.94129;33.92300;    -0.43140;1.00000
119.14140;33.97300;    -0.43056;1.00000
119.34142;34.02300;    -0.43000;1.00000
119.54146;34.07300;    -0.43142;1.00000
119.74147;34.12300;    -0.43132;1.00000
119.94155;34.17300;    -0.43081;1.00000
120.14159;34.22300;    -0.43132;1.00000
120.34161;34.27300;    -0.43175;1.00000
120.54171;34.32300;    -0.43075;1.00000
120.74168;34.37300;    -0.43158;1.00000
120.94163;34.42300;    -0.43119;1.00000
121.14155;34.47300;    -0.43131;1.00000
121.34148;34.52300;    -0.43081;1.00000
121.54146;34.57300;    -0.43159;1.00000
121.74137;34.62300;    -0.43135;1.00000
121.94131;34.67300;    -0.43156;1.00000
122.14122;34.72300;    -0.43158;1.00000
122.34126;34.77300;    -0.43178;1.00000
122.54130;34.82300;    -0.43226;1.00000
122.74121;34.87300;    -0.43039;1.00000
122.94125;34.92300;    -0.43156;1.00000
123.14130;34.97300;    -0.43030;1.00000
123.34142;35.02300;    -0.43163;1.00000
123.54138;35.07300;    -0.43092;1.00000
123.74133;35.12300;    -0.43141;1.00000
123.94135;35.17300;    -0.43143;1.00000
124.14145;35.22300;    -0.43093;1.00000
124.34146;35.27300;    -0.43104;1.00000
124.54156;35.32300;    -0.43196;1.00000
124.74166;35.37300;    -0.43057;1.00000
124.94184;35.42300;    -0.42998;1.00000
125.14196;35.47300;    -0.43017;1.00000
125.34189;35.52300;    -0.43047;1.00000
125.54179;35.57300;    -0.43074;1.00000
125.74180;35.62300;    -0.43027;1.00000
125.94180;35.67300;    -0.43072;1.00000
126.14169;35.72300;    -0.42902;1.00000
126.34169;35.77300;    -0.42795;1.00000
126.54147;35.82300;    -0.42908;1.00000
126.74117;35.87300;    -0.42915;1.00000
126.94086;35.92300;    -0.42862;1.00000
127.14061;35.97300;    -0.42888;1.00000
127.34055;36.02300;    -0.42886;1.00000
127.54062;36.07300;    -0.42869;1.00000
127.74058;36.12300;    -0.42731;1.00000
127.94051;36.17300;    -0.42774;1.00000
128.14059;36.22300;    -0.42866;1.00000
